Title: The Intrinsic Far-infrared Continua of Type-1 Quasars
(2017 ApJ, 841, 76) 
Authors: Jianwei Lyu, George H. Rieke
Table: AGN Intrinsic Templates
================================================================================
Column Description of file: AGN_temp.ascii
--------------------------------------------------------------------------------
Column        Label                     Explanations
--------------------------------------------------------------------------------
1       log(lambda/micron)      wavelength (unit:micron) in logarithmic scale
2       log(frequency/Hz)       frequencey (unit:hertz) in logarithmic scale
3       log(Lumosity_{norm.})   intrinsic AGN luminosity (vFv, normalized at 1.25 micron) 
                                      for normal quasars in logarithmic scale
4       log(Lumosity_{HDD})     intrinsic AGN luminosity (vFv, normalized at 1.25 micron) 
                                      for hot-dust-deficient quasars in logarithmic scale
5       log(Lumosity_{WDD})     intrinsic AGN luminosity (vFv, normalized at 1.25 micron) 
                                      for warm-dust-deficient quasars in logarithmic scale
--------------------------------------------------------------------------------
 -1.00   15.48   0.575   0.574   0.571
 -0.99   15.47   0.578   0.576   0.574
 -0.98   15.46   0.579   0.578   0.576
 -0.97   15.45   0.588   0.587   0.585
 -0.96   15.44   0.595   0.594   0.591
 -0.95   15.43   0.595   0.594   0.592
 -0.94   15.42   0.598   0.596   0.594
 -0.93   15.41   0.599   0.598   0.595
 -0.92   15.40   0.601   0.600   0.598
 -0.91   15.39   0.605   0.604   0.602
 -0.90   15.38   0.607   0.606   0.604
 -0.89   15.37   0.613   0.611   0.609
 -0.88   15.36   0.615   0.613   0.611
 -0.87   15.35   0.616   0.615   0.612
 -0.86   15.34   0.617   0.615   0.613
 -0.85   15.33   0.615   0.613   0.611
 -0.84   15.32   0.612   0.611   0.608
 -0.83   15.31   0.612   0.611   0.608
 -0.82   15.30   0.611   0.610   0.608
 -0.81   15.29   0.608   0.606   0.604
 -0.80   15.28   0.604   0.603   0.600
 -0.79   15.27   0.603   0.601   0.599
 -0.78   15.26   0.601   0.600   0.597
 -0.77   15.25   0.597   0.595   0.593
 -0.76   15.24   0.594   0.593   0.590
 -0.75   15.23   0.592   0.591   0.588
 -0.74   15.22   0.589   0.588   0.585
 -0.73   15.21   0.590   0.589   0.586
 -0.72   15.20   0.589   0.587   0.585
 -0.71   15.19   0.587   0.586   0.583
 -0.70   15.18   0.586   0.585   0.582
 -0.69   15.17   0.581   0.579   0.577
 -0.68   15.16   0.578   0.576   0.574
 -0.67   15.15   0.577   0.576   0.573
 -0.66   15.14   0.576   0.574   0.572
 -0.65   15.13   0.576   0.575   0.573
 -0.64   15.12   0.576   0.574   0.572
 -0.63   15.11   0.574   0.572   0.570
 -0.62   15.10   0.573   0.571   0.569
 -0.61   15.09   0.568   0.567   0.565
 -0.60   15.08   0.564   0.563   0.560
 -0.59   15.07   0.565   0.564   0.561
 -0.58   15.06   0.563   0.561   0.559
 -0.57   15.05   0.561   0.559   0.557
 -0.56   15.04   0.556   0.554   0.552
 -0.55   15.03   0.550   0.549   0.546
 -0.54   15.02   0.542   0.541   0.538
 -0.53   15.01   0.533   0.532   0.529
 -0.52   15.00   0.524   0.523   0.520
 -0.51   14.99   0.510   0.508   0.506
 -0.50   14.98   0.495   0.494   0.491
 -0.49   14.97   0.485   0.484   0.481
 -0.48   14.96   0.473   0.472   0.469
 -0.47   14.95   0.459   0.457   0.455
 -0.46   14.94   0.445   0.443   0.441
 -0.45   14.93   0.430   0.428   0.426
 -0.44   14.92   0.415   0.414   0.411
 -0.43   14.91   0.400   0.398   0.396
 -0.42   14.90   0.384   0.383   0.381
 -0.41   14.89   0.371   0.370   0.367
 -0.40   14.88   0.357   0.356   0.354
 -0.39   14.87   0.341   0.339   0.337
 -0.38   14.86   0.325   0.324   0.322
 -0.37   14.85   0.310   0.308   0.306
 -0.36   14.84   0.296   0.294   0.292
 -0.35   14.83   0.280   0.279   0.276
 -0.34   14.82   0.267   0.266   0.263
 -0.33   14.81   0.254   0.252   0.250
 -0.32   14.80   0.242   0.241   0.238
 -0.31   14.79   0.233   0.232   0.230
 -0.30   14.78   0.224   0.223   0.221
 -0.29   14.77   0.217   0.216   0.213
 -0.28   14.76   0.210   0.209   0.206
 -0.27   14.75   0.202   0.201   0.198
 -0.26   14.74   0.194   0.192   0.190
 -0.25   14.73   0.188   0.186   0.184
 -0.24   14.72   0.181   0.179   0.177
 -0.23   14.71   0.173   0.171   0.169
 -0.22   14.70   0.166   0.164   0.162
 -0.21   14.69   0.157   0.155   0.153
 -0.20   14.68   0.150   0.149   0.146
 -0.19   14.67   0.144   0.142   0.140
 -0.18   14.66   0.138   0.136   0.134
 -0.17   14.65   0.135   0.134   0.131
 -0.16   14.64   0.131   0.129   0.127
 -0.15   14.63   0.128   0.127   0.124
 -0.14   14.62   0.124   0.123   0.120
 -0.13   14.61   0.117   0.116   0.114
 -0.12   14.60   0.110   0.109   0.107
 -0.11   14.59   0.104   0.103   0.100
 -0.10   14.58   0.098   0.097   0.094
 -0.09   14.57   0.089   0.088   0.085
 -0.08   14.56   0.081   0.079   0.077
 -0.07   14.55   0.073   0.072   0.070
 -0.06   14.54   0.066   0.065   0.063
 -0.05   14.53   0.059   0.058   0.055
 -0.04   14.52   0.052   0.051   0.048
 -0.03   14.51   0.046   0.045   0.042
 -0.02   14.50   0.040   0.039   0.036
 -0.01   14.49   0.034   0.032   0.030
  0.00   14.48   0.030   0.028   0.026
  0.01   14.47   0.024   0.022   0.020
  0.02   14.46   0.018   0.017   0.014
  0.03   14.45   0.013   0.011   0.009
  0.04   14.44   0.007   0.006   0.003
  0.05   14.43   0.004   0.002  -0.000
  0.06   14.42   0.000  -0.001  -0.003
  0.07   14.41  -0.001  -0.003  -0.005
  0.08   14.40  -0.001  -0.003  -0.005
  0.09   14.39  -0.001  -0.002  -0.005
  0.10   14.38   0.000   0.000   0.006
  0.11   14.37   0.004  -0.005   0.010
  0.12   14.36   0.008  -0.009   0.014
  0.13   14.35   0.014  -0.012   0.020
  0.14   14.34   0.021  -0.014   0.026
  0.15   14.33   0.030  -0.016   0.032
  0.16   14.32   0.040  -0.017   0.040
  0.17   14.31   0.050  -0.017   0.048
  0.18   14.30   0.063  -0.016   0.056
  0.19   14.29   0.075  -0.016   0.065
  0.20   14.28   0.086  -0.014   0.074
  0.21   14.27   0.098  -0.013   0.084
  0.22   14.26   0.111  -0.011   0.094
  0.23   14.25   0.124  -0.009   0.105
  0.24   14.24   0.138  -0.007   0.116
  0.25   14.23   0.150  -0.004   0.127
  0.26   14.22   0.162  -0.001   0.139
  0.27   14.21   0.173   0.002   0.150
  0.28   14.20   0.184   0.005   0.162
  0.29   14.19   0.196   0.008   0.173
  0.30   14.18   0.209   0.011   0.184
  0.31   14.17   0.220   0.013   0.195
  0.32   14.16   0.230   0.016   0.206
  0.33   14.15   0.239   0.018   0.217
  0.34   14.14   0.248   0.019   0.228
  0.35   14.13   0.255   0.021   0.239
  0.36   14.12   0.262   0.022   0.249
  0.37   14.11   0.268   0.023   0.258
  0.38   14.10   0.272   0.023   0.267
  0.39   14.09   0.277   0.024   0.276
  0.40   14.08   0.282   0.024   0.284
  0.41   14.07   0.286   0.025   0.291
  0.42   14.06   0.290   0.025   0.297
  0.43   14.05   0.292   0.025   0.303
  0.44   14.04   0.293   0.026   0.309
  0.45   14.03   0.295   0.026   0.314
  0.46   14.02   0.294   0.026   0.318
  0.47   14.01   0.295   0.025   0.321
  0.48   14.00   0.297   0.025   0.324
  0.49   13.99   0.298   0.025   0.326
  0.50   13.98   0.299   0.024   0.328
  0.51   13.97   0.299   0.024   0.329
  0.52   13.96   0.300   0.023   0.329
  0.53   13.95   0.300   0.022   0.328
  0.54   13.94   0.300   0.020   0.326
  0.55   13.93   0.300   0.019   0.324
  0.56   13.92   0.299   0.017   0.321
  0.57   13.91   0.298   0.015   0.317
  0.58   13.90   0.298   0.012   0.314
  0.59   13.89   0.298   0.010   0.310
  0.60   13.88   0.298   0.007   0.306
  0.61   13.87   0.299   0.003   0.301
  0.62   13.86   0.299  -0.000   0.296
  0.63   13.85   0.300  -0.004   0.291
  0.64   13.84   0.301  -0.008   0.286
  0.65   13.83   0.302  -0.011   0.281
  0.66   13.82   0.303  -0.016   0.275
  0.67   13.81   0.304  -0.020   0.270
  0.68   13.80   0.305  -0.024   0.264
  0.69   13.79   0.306  -0.029   0.258
  0.70   13.78   0.308  -0.033   0.251
  0.71   13.77   0.309  -0.038   0.245
  0.72   13.76   0.308  -0.043   0.239
  0.73   13.75   0.309  -0.048   0.232
  0.74   13.74   0.309  -0.053   0.226
  0.75   13.73   0.309  -0.058   0.220
  0.76   13.72   0.309  -0.063   0.213
  0.77   13.71   0.308  -0.068   0.207
  0.78   13.70   0.307  -0.073   0.201
  0.79   13.69   0.307  -0.078   0.194
  0.80   13.68   0.310  -0.083   0.188
  0.81   13.67   0.312  -0.088   0.182
  0.82   13.66   0.315  -0.093   0.175
  0.83   13.65   0.316  -0.098   0.169
  0.84   13.64   0.317  -0.103   0.163
  0.85   13.63   0.316  -0.108   0.156
  0.86   13.62   0.312  -0.113   0.150
  0.87   13.61   0.312  -0.118   0.144
  0.88   13.60   0.313  -0.122   0.137
  0.89   13.59   0.315  -0.127   0.131
  0.90   13.58   0.322  -0.132   0.125
  0.91   13.57   0.326  -0.136   0.118
  0.92   13.56   0.331  -0.141   0.112
  0.93   13.55   0.335  -0.145   0.106
  0.94   13.54   0.340  -0.149   0.101
  0.95   13.53   0.344  -0.153   0.095
  0.96   13.52   0.348  -0.157   0.090
  0.97   13.51   0.352  -0.161   0.085
  0.98   13.50   0.355  -0.165   0.080
  0.99   13.49   0.357  -0.169   0.075
  1.00   13.48   0.359  -0.172   0.070
  1.01   13.47   0.361  -0.175   0.066
  1.02   13.46   0.361  -0.179   0.062
  1.03   13.45   0.361  -0.182   0.058
  1.04   13.44   0.361  -0.185   0.054
  1.05   13.43   0.361  -0.188   0.051
  1.06   13.42   0.361  -0.191   0.047
  1.07   13.41   0.361  -0.194   0.044
  1.08   13.40   0.361  -0.197   0.041
  1.09   13.39   0.361  -0.200   0.038
  1.10   13.38   0.361  -0.202   0.036
  1.11   13.37   0.360  -0.205   0.033
  1.12   13.36   0.358  -0.208   0.031
  1.13   13.35   0.356  -0.211   0.029
  1.14   13.34   0.353  -0.214   0.026
  1.15   13.33   0.350  -0.217   0.024
  1.16   13.32   0.348  -0.220   0.022
  1.17   13.31   0.344  -0.223   0.019
  1.18   13.30   0.339  -0.227   0.016
  1.19   13.29   0.335  -0.230   0.013
  1.20   13.28   0.331  -0.234   0.009
  1.21   13.27   0.327  -0.238   0.004
  1.22   13.26   0.323  -0.243  -0.001
  1.23   13.25   0.318  -0.248  -0.007
  1.24   13.24   0.314  -0.253  -0.014
  1.25   13.23   0.309  -0.260  -0.020
  1.26   13.22   0.304  -0.267  -0.028
  1.27   13.21   0.299  -0.274  -0.036
  1.28   13.20   0.294  -0.282  -0.044
  1.29   13.19   0.289  -0.290  -0.053
  1.30   13.18   0.283  -0.299  -0.062
  1.31   13.17   0.277  -0.307  -0.072
  1.32   13.16   0.270  -0.317  -0.082
  1.33   13.15   0.262  -0.326  -0.092
  1.34   13.14   0.253  -0.336  -0.104
  1.35   13.13   0.245  -0.346  -0.115
  1.36   13.12   0.237  -0.356  -0.127
  1.37   13.11   0.228  -0.367  -0.139
  1.38   13.10   0.221  -0.378  -0.152
  1.39   13.09   0.213  -0.389  -0.164
  1.40   13.08   0.204  -0.400  -0.176
  1.41   13.07   0.196  -0.412  -0.188
  1.42   13.06   0.187  -0.423  -0.200
  1.43   13.05   0.179  -0.434  -0.212
  1.44   13.04   0.170  -0.445  -0.224
  1.45   13.03   0.161  -0.455  -0.235
  1.46   13.02   0.150  -0.466  -0.247
  1.47   13.01   0.141  -0.476  -0.259
  1.48   13.00   0.132  -0.487  -0.270
  1.49   12.99   0.122  -0.497  -0.282
  1.50   12.98   0.113  -0.507  -0.294
  1.51   12.97   0.104  -0.518  -0.305
  1.52   12.96   0.094  -0.528  -0.317
  1.53   12.95   0.085  -0.538  -0.329
  1.54   12.94   0.078  -0.549  -0.340
  1.55   12.93   0.069  -0.559  -0.352
  1.56   12.92   0.060  -0.569  -0.364
  1.57   12.91   0.050  -0.580  -0.375
  1.58   12.90   0.040  -0.590  -0.387
  1.59   12.89   0.029  -0.600  -0.399
  1.60   12.88   0.018  -0.611  -0.410
  1.61   12.87   0.006  -0.621  -0.422
  1.62   12.86  -0.006  -0.631  -0.433
  1.63   12.85  -0.019  -0.641  -0.445
  1.64   12.84  -0.033  -0.652  -0.457
  1.65   12.83  -0.048  -0.662  -0.468
  1.66   12.82  -0.068  -0.672  -0.481
  1.67   12.81  -0.085  -0.682  -0.494
  1.68   12.80  -0.104  -0.693  -0.508
  1.69   12.79  -0.122  -0.704  -0.521
  1.70   12.78  -0.139  -0.716  -0.536
  1.71   12.77  -0.156  -0.730  -0.552
  1.72   12.76  -0.173  -0.744  -0.570
  1.73   12.75  -0.188  -0.760  -0.588
  1.74   12.74  -0.203  -0.778  -0.607
  1.75   12.73  -0.218  -0.796  -0.628
  1.76   12.72  -0.233  -0.816  -0.649
  1.77   12.71  -0.248  -0.837  -0.672
  1.78   12.70  -0.265  -0.859  -0.696
  1.79   12.69  -0.282  -0.883  -0.721
  1.80   12.68  -0.298  -0.907  -0.747
  1.81   12.67  -0.316  -0.933  -0.774
  1.82   12.66  -0.334  -0.960  -0.803
  1.83   12.65  -0.352  -0.989  -0.832
  1.84   12.64  -0.369  -1.018  -0.863
  1.85   12.63  -0.388  -1.049  -0.895
  1.86   12.62  -0.407  -1.081  -0.926
  1.87   12.61  -0.428  -1.115  -0.959
  1.88   12.60  -0.453  -1.149  -0.993
  1.89   12.59  -0.478  -1.184  -1.028
  1.90   12.58  -0.506  -1.219  -1.063
  1.91   12.57  -0.535  -1.254  -1.098
  1.92   12.56  -0.566  -1.289  -1.133
  1.93   12.55  -0.600  -1.324  -1.168
  1.94   12.54  -0.637  -1.359  -1.203
  1.95   12.53  -0.674  -1.394  -1.238
  1.96   12.52  -0.712  -1.429  -1.273
  1.97   12.51  -0.751  -1.464  -1.308
  1.98   12.50  -0.790  -1.499  -1.343
  1.99   12.49  -0.832  -1.534  -1.378
  2.00   12.48  -0.868  -1.569  -1.413
  2.01   12.47  -0.906  -1.604  -1.448
  2.02   12.46  -0.944  -1.639  -1.483
  2.03   12.45  -0.982  -1.674  -1.518
  2.04   12.44  -1.021  -1.709  -1.553
  2.05   12.43  -1.059  -1.744  -1.588
  2.06   12.42  -1.098  -1.779  -1.623
  2.07   12.41  -1.137  -1.814  -1.658
  2.08   12.40  -1.176  -1.849  -1.693
  2.09   12.39  -1.215  -1.884  -1.728
  2.10   12.38  -1.255  -1.919  -1.763
  2.11   12.37  -1.294  -1.954  -1.798
  2.12   12.36  -1.334  -1.989  -1.833
  2.13   12.35  -1.373  -2.024  -1.868
  2.14   12.34  -1.413  -2.059  -1.903
  2.15   12.33  -1.453  -2.094  -1.938
  2.16   12.32  -1.494  -2.129  -1.973
  2.17   12.31  -1.534  -2.164  -2.008
  2.18   12.30  -1.574  -2.199  -2.043
  2.19   12.29  -1.615  -2.234  -2.078
  2.20   12.28  -1.655  -2.269  -2.113
  2.21   12.27  -1.696  -2.304  -2.148
  2.22   12.26  -1.737  -2.339  -2.183
  2.23   12.25  -1.778  -2.374  -2.218
  2.24   12.24  -1.819  -2.409  -2.253
  2.25   12.23  -1.860  -2.444  -2.288
  2.26   12.22  -1.901  -2.479  -2.323
  2.27   12.21  -1.943  -2.514  -2.358
  2.28   12.20  -1.984  -2.549  -2.393
  2.29   12.19  -2.026  -2.584  -2.428
  2.30   12.18  -2.067  -2.619  -2.463
  2.31   12.17  -2.109  -2.654  -2.498
  2.32   12.16  -2.151  -2.689  -2.533
  2.33   12.15  -2.193  -2.724  -2.568
  2.34   12.14  -2.235  -2.759  -2.603
  2.35   12.13  -2.277  -2.794  -2.638
  2.36   12.12  -2.319  -2.829  -2.673
  2.37   12.11  -2.361  -2.864  -2.708
  2.38   12.10  -2.403  -2.899  -2.743
  2.39   12.09  -2.445  -2.934  -2.778
  2.40   12.08  -2.488  -2.969  -2.813
  2.41   12.07  -2.530  -3.004  -2.848
  2.42   12.06  -2.573  -3.039  -2.883
  2.43   12.05  -2.615  -3.074  -2.918
  2.44   12.04  -2.658  -3.109  -2.953
  2.45   12.03  -2.700  -3.144  -2.988
  2.46   12.02  -2.743  -3.179  -3.023
  2.47   12.01  -2.786  -3.214  -3.058
  2.48   12.00  -2.829  -3.249  -3.093
  2.49   11.99  -2.872  -3.284  -3.128
  2.50   11.98  -2.915  -3.319  -3.163
  2.51   11.97  -2.958  -3.354  -3.198
  2.52   11.96  -3.001  -3.389  -3.233
  2.53   11.95  -3.044  -3.424  -3.268
  2.54   11.94  -3.087  -3.459  -3.303
  2.55   11.93  -3.130  -3.494  -3.338
  2.56   11.92  -3.173  -3.529  -3.373
  2.57   11.91  -3.216  -3.564  -3.408
  2.58   11.90  -3.260  -3.599  -3.443
  2.59   11.89  -3.303  -3.634  -3.478
  2.60   11.88  -3.346  -3.669  -3.513
  2.61   11.87  -3.390  -3.704  -3.548
  2.62   11.86  -3.433  -3.739  -3.583
  2.63   11.85  -3.477  -3.774  -3.618
  2.64   11.84  -3.520  -3.809  -3.653
  2.65   11.83  -3.564  -3.844  -3.688
  2.66   11.82  -3.607  -3.879  -3.723
  2.67   11.81  -3.651  -3.914  -3.758
  2.68   11.80  -3.695  -3.949  -3.793
  2.69   11.79  -3.738  -3.984  -3.828
  2.70   11.78  -3.782  -4.019  -3.863
  2.71   11.77  -3.826  -4.054  -3.898
  2.72   11.76  -3.870  -4.089  -3.933
  2.73   11.75  -3.914  -4.124  -3.968
  2.74   11.74  -3.957  -4.159  -4.003
  2.75   11.73  -4.001  -4.194  -4.038
  2.76   11.72  -4.045  -4.229  -4.073
  2.77   11.71  -4.089  -4.264  -4.108
  2.78   11.70  -4.133  -4.299  -4.143
  2.79   11.69  -4.177  -4.334  -4.178
  2.80   11.68  -4.221  -4.369  -4.213
  2.81   11.67  -4.265  -4.404  -4.248
  2.82   11.66  -4.309  -4.439  -4.283
  2.83   11.65  -4.353  -4.474  -4.318
  2.84   11.64  -4.397  -4.509  -4.353
  2.85   11.63  -4.441  -4.544  -4.388
  2.86   11.62  -4.485  -4.579  -4.423
  2.87   11.61  -4.530  -4.614  -4.458
  2.88   11.60  -4.574  -4.649  -4.493
  2.89   11.59  -4.618  -4.684  -4.528
  2.90   11.58  -4.662  -4.719  -4.563
  2.91   11.57  -4.706  -4.754  -4.598
  2.92   11.56  -4.751  -4.789  -4.633
  2.93   11.55  -4.795  -4.824  -4.668
  2.94   11.54  -4.839  -4.859  -4.703
  2.95   11.53  -4.884  -4.894  -4.738
  2.96   11.52  -4.928  -4.929  -4.773
  2.97   11.51  -4.972  -4.964  -4.808
  2.98   11.50  -5.016  -4.999  -4.843
